FFT of Input Signal
Freq (Hz),Mag (Normalized for N)
0,14.2273
9.76562,14.2342
19.5312,14.2551
29.2969,14.29
39.0625,14.3391
48.8281,14.4027
58.5938,14.4813
68.3594,14.5753
78.125,14.6852
87.8906,14.8119
97.6562,14.9561
107.422,15.1187
117.188,15.301
126.953,15.5041
136.719,15.7297
146.484,15.9795
156.25,16.2554
166.016,16.5598
175.781,16.8954
185.547,17.2653
195.312,17.6732
205.078,18.1234
214.844,18.621
224.609,19.1719
234.375,19.7832
244.141,20.4637
253.906,21.2236
263.672,22.0757
273.438,23.0357
283.203,24.1232
292.969,25.3628
302.734,26.7864
312.5,28.4353
322.266,30.3646
332.031,32.6491
341.797,35.3929
351.562,38.7457
361.328,42.9308
371.094,48.2962
380.859,55.4173
390.625,65.3184
400.391,80.0204
410.156,104.154
419.922,151.241
429.688,285.425
439.453,5114.44
449.219,265.829
458.984,211.267
468.75,133.993
478.516,88.0459
488.281,66.8338
498.047,53.9426
507.812,45.1621
517.578,38.7668
527.344,33.8921
537.109,30.0504
546.875,26.9442
556.641,24.3807
566.406,22.2294
576.172,20.3988
585.938,18.8226
595.703,17.4517
605.469,16.2486
615.234,15.1849
625,14.2378
634.766,13.3894
644.531,12.6254
654.297,11.934
664.062,11.3054
673.828,10.7317
683.594,10.2061
693.359,9.72296
703.125,9.27747
712.891,8.86549
722.656,8.4835
732.422,8.12841
742.188,7.79758
751.953,7.48867
761.719,7.19965
771.484,6.92871
781.25,6.67429
791.016,6.43495
800.781,6.20946
810.547,5.99669
820.312,5.79563
830.078,5.60538
839.844,5.42514
849.609,5.25416
859.375,5.09179
869.141,4.93741
878.906,4.79048
888.672,4.6505
898.438,4.517
908.203,4.38958
917.969,4.26785
927.734,4.15145
937.5,4.04005
947.266,3.93337
957.031,3.83112
966.797,3.73305
976.562,3.63891
986.328,3.5485
996.094,3.46161
1005.86,3.37804
1015.62,3.29763
1025.39,3.2202
1035.16,3.14561
1044.92,3.07371
1054.69,3.00436
1064.45,2.93745
1074.22,2.87285
1083.98,2.81045
1093.75,2.75015
1103.52,2.69185
1113.28,2.63547
1123.05,2.58091
1132.81,2.52809
1142.58,2.47694
1152.34,2.42738
1162.11,2.37935
1171.88,2.33278
1181.64,2.28761
1191.41,2.24379
1201.17,2.20125
1210.94,2.15994
1220.7,2.11983
1230.47,2.08085
1240.23,2.04297
1250,2.00615
1259.77,1.97033
1269.53,1.93549
1279.3,1.90159
1289.06,1.8686
1298.83,1.83647
1308.59,1.80519
1318.36,1.77471
1328.12,1.74502
1337.89,1.71608
1347.66,1.68787
1357.42,1.66036
1367.19,1.63353
1376.95,1.60736
1386.72,1.58182
1396.48,1.55689
1406.25,1.53255
1416.02,1.50879
1425.78,1.48559
1435.55,1.46292
1445.31,1.44078
1455.08,1.41913
1464.84,1.39798
1474.61,1.3773
1484.38,1.35708
1494.14,1.33731
1503.91,1.31797
1513.67,1.29904
1523.44,1.28053
1533.2,1.26241
1542.97,1.24467
1552.73,1.22731
1562.5,1.2103
1572.27,1.19365
1582.03,1.17734
1591.8,1.16137
1601.56,1.14571
1611.33,1.13037
1621.09,1.11534
1630.86,1.1006
1640.62,1.08616
1650.39,1.07199
1660.16,1.0581
1669.92,1.04448
1679.69,1.03111
1689.45,1.018
1699.22,1.00514
1708.98,0.992518
1718.75,0.98013
1728.52,0.96797
1738.28,0.956033
1748.05,0.944313
1757.81,0.932806
1767.58,0.921505
1777.34,0.910406
1787.11,0.899504
1796.88,0.888793
1806.64,0.878271
1816.41,0.867931
1826.17,0.857771
1835.94,0.847785
1845.7,0.837969
1855.47,0.82832
1865.23,0.818834
1875,0.809507
1884.77,0.800336
1894.53,0.791316
1904.3,0.782445
1914.06,0.77372
1923.83,0.765136
1933.59,0.756691
1943.36,0.748382
1953.12,0.740206
1962.89,0.73216
1972.66,0.724242
1982.42,0.716448
1992.19,0.708775
2001.95,0.701222
2011.72,0.693786
2021.48,0.686464
2031.25,0.679254
2041.02,0.672154
2050.78,0.665162
2060.55,0.658274
2070.31,0.65149
2080.08,0.644806
2089.84,0.638222
2099.61,0.631734
2109.38,0.625342
2119.14,0.619043
2128.91,0.612835
2138.67,0.606717
2148.44,0.600687
2158.2,0.594742
2167.97,0.588882
2177.73,0.583105
2187.5,0.57741
2197.27,0.571794
2207.03,0.566256
2216.8,0.560795
2226.56,0.555409
2236.33,0.550097
2246.09,0.544858
2255.86,0.53969
2265.62,0.534592
2275.39,0.529563
2285.16,0.5246
2294.92,0.519704
2304.69,0.514874
2314.45,0.510106
2324.22,0.505402
2333.98,0.500759
2343.75,0.496177
2353.52,0.491654
2363.28,0.487189
2373.05,0.482782
2382.81,0.478432
2392.58,0.474136
2402.34,0.469895
2412.11,0.465708
2421.88,0.461573
2431.64,0.45749
2441.41,0.453458
2451.17,0.449476
2460.94,0.445543
2470.7,0.441659
2480.47,0.437822
2490.23,0.434032
2500,0.430288
2509.77,0.426589
2519.53,0.422935
2529.3,0.419324
2539.06,0.415757
2548.83,0.412232
2558.59,0.408749
2568.36,0.405307
2578.12,0.401906
2587.89,0.398544
2597.66,0.395221
2607.42,0.391937
2617.19,0.388691
2626.95,0.385483
2636.72,0.382311
2646.48,0.379175
2656.25,0.376076
2666.02,0.373011
2675.78,0.369981
2685.55,0.366985
2695.31,0.364022
2705.08,0.361093
2714.84,0.358197
2724.61,0.355332
2734.38,0.352499
2744.14,0.349698
2753.91,0.346927
2763.67,0.344186
2773.44,0.341475
2783.2,0.338794
2792.97,0.336141
2802.73,0.333518
2812.5,0.330922
2822.27,0.328354
2832.03,0.325814
2841.8,0.3233
2851.56,0.320813
2861.33,0.318353
2871.09,0.315918
2880.86,0.313509
2890.62,0.311125
2900.39,0.308766
2910.16,0.306431
2919.92,0.304121
2929.69,0.301835
2939.45,0.299571
2949.22,0.297332
2958.98,0.295115
2968.75,0.29292
2978.52,0.290748
2988.28,0.288598
2998.05,0.28647
3007.81,0.284363
3017.58,0.282278
3027.34,0.280213
3037.11,0.278169
3046.88,0.276145
3056.64,0.274142
3066.41,0.272158
3076.17,0.270194
3085.94,0.268249
3095.7,0.266323
3105.47,0.264416
3115.23,0.262528
3125,0.260658
3134.77,0.258807
3144.53,0.256973
3154.3,0.255157
3164.06,0.253359
3173.83,0.251578
3183.59,0.249814
3193.36,0.248067
3203.12,0.246337
3212.89,0.244624
3222.66,0.242926
3232.42,0.241245
3242.19,0.23958
3251.95,0.237931
3261.72,0.236297
3271.48,0.234679
3281.25,0.233076
3291.02,0.231488
3300.78,0.229915
3310.55,0.228356
3320.31,0.226813
3330.08,0.225283
3339.84,0.223768
3349.61,0.222268
3359.38,0.220781
3369.14,0.219308
3378.91,0.217848
3388.67,0.216402
3398.44,0.21497
3408.2,0.213551
3417.97,0.212145
3427.73,0.210752
3437.5,0.209371
3447.27,0.208004
3457.03,0.206649
3466.8,0.205307
3476.56,0.203977
3486.33,0.202659
3496.09,0.201353
3505.86,0.200059
3515.62,0.198778
3525.39,0.197508
3535.16,0.196249
3544.92,0.195002
3554.69,0.193767
3564.45,0.192543
3574.22,0.19133
3583.98,0.190129
3593.75,0.188938
3603.52,0.187759
3613.28,0.18659
3623.05,0.185432
3632.81,0.184285
3642.58,0.183148
3652.34,0.182022
3662.11,0.180906
3671.88,0.1798
3681.64,0.178705
3691.41,0.17762
3701.17,0.176545
3710.94,0.17548
3720.7,0.174425
3730.47,0.17338
3740.23,0.172345
3750,0.171319
3759.77,0.170303
3769.53,0.169296
3779.3,0.168299
3789.06,0.167312
3798.83,0.166334
3808.59,0.165365
3818.36,0.164405
3828.12,0.163455
3837.89,0.162514
3847.66,0.161581
3857.42,0.160658
3867.19,0.159744
3876.95,0.158839
3886.72,0.157942
3896.48,0.157054
3906.25,0.156175
3916.02,0.155305
3925.78,0.154444
3935.55,0.153591
3945.31,0.152746
3955.08,0.15191
3964.84,0.151083
3974.61,0.150264
3984.38,0.149454
3994.14,0.148651
4003.91,0.147858
4013.67,0.147072
4023.44,0.146295
4033.2,0.145526
4042.97,0.144765
4052.73,0.144012
4062.5,0.143267
4072.27,0.142531
4082.03,0.141802
4091.8,0.141082
4101.56,0.140369
4111.33,0.139665
4121.09,0.138968
4130.86,0.138279
4140.62,0.137599
4150.39,0.136926
4160.16,0.136261
4169.92,0.135604
4179.69,0.134954
4189.45,0.134313
4199.22,0.133679
4208.98,0.133053
4218.75,0.132435
4228.52,0.131824
4238.28,0.131222
4248.05,0.130626
4257.81,0.130039
4267.58,0.129459
4277.34,0.128887
4287.11,0.128323
4296.88,0.127766
4306.64,0.127217
4316.41,0.126676
4326.17,0.126142
4335.94,0.125615
4345.7,0.125097
4355.47,0.124586
4365.23,0.124082
4375,0.123586
4384.77,0.123098
4394.53,0.122618
4404.3,0.122144
4414.06,0.121679
4423.83,0.121221
4433.59,0.120771
4443.36,0.120328
4453.12,0.119893
4462.89,0.119465
4472.66,0.119045
4482.42,0.118633
4492.19,0.118228
4501.95,0.11783
4511.72,0.117441
4521.48,0.117059
4531.25,0.116684
4541.02,0.116317
4550.78,0.115958
4560.55,0.115606
4570.31,0.115262
4580.08,0.114926
4589.84,0.114597
4599.61,0.114276
4609.38,0.113962
4619.14,0.113656
4628.91,0.113358
4638.67,0.113067
4648.44,0.112784
4658.2,0.112508
4667.97,0.112241
4677.73,0.111981
4687.5,0.111728
4697.27,0.111484
4707.03,0.111247
4716.8,0.111017
4726.56,0.110796
4736.33,0.110582
4746.09,0.110376
4755.86,0.110177
4765.62,0.109987
4775.39,0.109804
4785.16,0.109628
4794.92,0.109461
4804.69,0.109301
4814.45,0.109149
4824.22,0.109005
4833.98,0.108868
4843.75,0.10874
4853.52,0.108619
4863.28,0.108506
4873.05,0.1084
4882.81,0.108303
4892.58,0.108213
4902.34,0.108131
4912.11,0.108057
4921.88,0.10799
4931.64,0.107932
4941.41,0.107881
4951.17,0.107838
4960.94,0.107803
4970.7,0.107776
4980.47,0.107756
4990.23,0.107744
